# pressure  , temperature 
# [Pa]      , [K] 
1.00000e+00 , 4.46097e+02 
1.09973e+00 , 4.58891e+02 
1.20940e+00 , 4.75121e+02 
1.33001e+00 , 4.84480e+02 
1.46265e+00 , 4.88037e+02 
1.60852e+00 , 4.89497e+02 
1.76894e+00 , 4.89258e+02 
1.94535e+00 , 4.88704e+02 
2.13935e+00 , 4.87423e+02 
2.35271e+00 , 4.85618e+02 
2.58734e+00 , 4.83826e+02 
2.84537e+00 , 4.81944e+02 
3.12913e+00 , 4.80087e+02 
3.44120e+00 , 4.78200e+02 
3.78438e+00 , 4.76209e+02 
4.16179e+00 , 4.74280e+02 
4.57684e+00 , 4.72567e+02 
5.03328e+00 , 4.70983e+02 
5.53524e+00 , 4.69498e+02 
6.08726e+00 , 4.68119e+02 
6.69433e+00 , 4.66820e+02 
7.36194e+00 , 4.65673e+02 
8.09614e+00 , 4.64737e+02 
8.90355e+00 , 4.63936e+02 
9.79148e+00 , 4.63235e+02 
1.07680e+01 , 4.62636e+02 
1.18418e+01 , 4.62079e+02 
1.30228e+01 , 4.61722e+02 
1.43215e+01 , 4.61610e+02 
1.57498e+01 , 4.61564e+02 
1.73205e+01 , 4.61633e+02 
1.90479e+01 , 4.61772e+02 
2.09475e+01 , 4.61945e+02 
2.30365e+01 , 4.62203e+02 
2.53339e+01 , 4.62682e+02 
2.78604e+01 , 4.63319e+02 
3.06389e+01 , 4.64000e+02 
3.36944e+01 , 4.64759e+02 
3.70547e+01 , 4.65558e+02 
4.07501e+01 , 4.66489e+02 
4.48140e+01 , 4.67719e+02 
4.92833e+01 , 4.69163e+02 
5.41982e+01 , 4.70733e+02 
5.96033e+01 , 4.72466e+02 
6.55474e+01 , 4.74345e+02 
7.20843e+01 , 4.76441e+02 
7.92732e+01 , 4.78873e+02 
8.71790e+01 , 4.81558e+02 
9.58732e+01 , 4.84411e+02 
1.05434e+02 , 4.87462e+02 
1.15949e+02 , 4.90723e+02 
1.27513e+02 , 4.94158e+02 
1.40229e+02 , 4.97745e+02 
1.54214e+02 , 5.01428e+02 
1.69593e+02 , 5.05116e+02 
1.86507e+02 , 5.08867e+02 
2.05107e+02 , 5.12699e+02 
2.25562e+02 , 5.16646e+02 
2.48056e+02 , 5.20738e+02 
2.72795e+02 , 5.25029e+02 
3.00000e+02 , 5.29664e+02 
3.29918e+02 , 5.34446e+02 
3.62821e+02 , 5.39089e+02 
3.99004e+02 , 5.43943e+02 
4.38796e+02 , 5.49440e+02 
4.82556e+02 , 5.55191e+02 
5.30681e+02 , 5.60835e+02 
5.83605e+02 , 5.66579e+02 
6.41806e+02 , 5.72557e+02 
7.05813e+02 , 5.78656e+02 
7.76202e+02 , 5.84827e+02 
8.53611e+02 , 5.91008e+02 
9.38740e+02 , 5.97136e+02 
1.03236e+03 , 6.03172e+02 
1.13531e+03 , 6.08991e+02 
1.24854e+03 , 6.14803e+02 
1.37305e+03 , 6.20795e+02 
1.50998e+03 , 6.26905e+02 
1.66057e+03 , 6.33096e+02 
1.82618e+03 , 6.39483e+02 
2.00830e+03 , 6.46111e+02 
2.20858e+03 , 6.53186e+02 
2.42884e+03 , 6.61092e+02 
2.67106e+03 , 6.69537e+02 
2.93745e+03 , 6.78243e+02 
3.23039e+03 , 6.87392e+02 
3.55255e+03 , 6.97089e+02 
3.90684e+03 , 7.07350e+02 
4.29646e+03 , 7.18258e+02 
4.72494e+03 , 7.29746e+02 
5.19615e+03 , 7.41703e+02 
5.71436e+03 , 7.54307e+02 
6.28424e+03 , 7.67666e+02 
6.91095e+03 , 7.81968e+02 
7.60017e+03 , 7.97712e+02 
8.35812e+03 , 8.14244e+02 
9.19166e+03 , 8.30909e+02 
1.01083e+04 , 8.47874e+02 
1.11164e+04 , 8.65082e+02 
1.22250e+04 , 8.82551e+02 
1.34442e+04 , 9.00280e+02 
1.47850e+04 , 9.18267e+02 
1.62595e+04 , 9.36510e+02 
1.78810e+04 , 9.55009e+02 
1.96642e+04 , 9.73764e+02 
2.16253e+04 , 9.92774e+02 
2.37820e+04 , 1.01204e+03 
2.61537e+04 , 1.03156e+03 
2.87619e+04 , 1.05133e+03 
3.16303e+04 , 1.07137e+03 
3.47848e+04 , 1.09165e+03 
3.82538e+04 , 1.11219e+03 
4.20688e+04 , 1.13299e+03 
4.62642e+04 , 1.15405e+03 
5.08780e+04 , 1.17536e+03 
5.59520e+04 , 1.19693e+03 
6.15320e+04 , 1.21876e+03 
6.76685e+04 , 1.24084e+03 
7.44169e+04 , 1.26319e+03 
8.18384e+04 , 1.28580e+03 
9.00000e+04 , 1.30868e+03 
9.89755e+04 , 1.33181e+03 
1.08846e+05 , 1.35522e+03 
1.19701e+05 , 1.37889e+03 
1.31639e+05 , 1.40284e+03 
1.44767e+05 , 1.42705e+03 
1.59204e+05 , 1.45154e+03 
1.75081e+05 , 1.47631e+03 
1.92542e+05 , 1.50136e+03 
2.11744e+05 , 1.52670e+03 
2.32861e+05 , 1.55232e+03 
2.56083e+05 , 1.57823e+03 
2.81622e+05 , 1.60495e+03 
3.09708e+05 , 1.63094e+03 
3.40594e+05 , 1.65475e+03 
3.74561e+05 , 1.67717e+03 
4.11916e+05 , 1.69842e+03 
4.52995e+05 , 1.71858e+03 
4.98172e+05 , 1.73794e+03 
5.47853e+05 , 1.75597e+03 
6.02490e+05 , 1.77195e+03 
6.62575e+05 , 1.78717e+03 
7.28652e+05 , 1.80279e+03 
8.01319e+05 , 1.81799e+03 
8.81234e+05 , 1.83217e+03 
9.69117e+05 , 1.84595e+03 
1.06577e+06 , 1.85959e+03 
1.17205e+06 , 1.87334e+03 
1.28894e+06 , 1.88789e+03 
1.41748e+06 , 1.90214e+03 
1.55885e+06 , 1.91481e+03 
1.71431e+06 , 1.92740e+03 
1.88527e+06 , 1.94133e+03 
2.07329e+06 , 1.95562e+03 
2.28005e+06 , 1.96967e+03 
2.50744e+06 , 1.98366e+03 
2.75750e+06 , 1.99730e+03 
3.03250e+06 , 2.01136e+03 
3.33492e+06 , 2.02717e+03 
3.66751e+06 , 2.04298e+03 
4.03326e+06 , 2.05688e+03 
4.43549e+06 , 2.07074e+03 
4.87784e+06 , 2.08605e+03 
5.36430e+06 , 2.10198e+03 
5.89927e+06 , 2.11825e+03 
6.48759e+06 , 2.13454e+03 
7.13459e+06 , 2.15004e+03 
7.84611e+06 , 2.16593e+03 
8.62858e+06 , 2.18397e+03 
9.48910e+06 , 2.20200e+03 
1.04354e+07 , 2.21771e+03 
1.14761e+07 , 2.23334e+03 
1.26206e+07 , 2.25072e+03 
1.38793e+07 , 2.26869e+03 
1.52634e+07 , 2.28657e+03 
1.67856e+07 , 2.30452e+03 
1.84596e+07 , 2.32221e+03 
2.03005e+07 , 2.34037e+03 
2.23251e+07 , 2.35973e+03 
2.45515e+07 , 2.38009e+03 
2.70000e+07 , 2.39994e+03 
