Refractive Index based of fresh BB - mix of BC and OC
     Wavelength (m)  Real Part       Imaginary Part
*BEGIN_DATA
     0.20000E-06     0.15344E+01     0.44494E-01
     0.25000E-06     0.15444E+01     0.57172E-01
     0.30000E-06     0.15543E+01     0.59693E-01
     0.33700E-06     0.15552E+01     0.59693E-01
     0.40000E-06     0.15552E+01     0.58432E-01
     0.48800E-06     0.15552E+01     0.57172E-01
     0.51500E-06     0.15552E+01     0.57172E-01
     0.55000E-06     0.15552E+01     0.55912E-01
     0.63300E-06     0.15552E+01     0.54653E-01
     0.69400E-06     0.15552E+01     0.54653E-01
     0.86000E-06     0.15552E+01     0.54653E-01
     0.10600E-05     0.15552E+01     0.55912E-01
     0.13000E-05     0.15561E+01     0.57172E-01
     0.15360E-05     0.15569E+01     0.58432E-01
     0.18000E-05     0.15585E+01     0.61031E-01
     0.20000E-05     0.15594E+01     0.62291E-01
     0.22500E-05     0.15602E+01     0.63551E-01
     0.25000E-05     0.15610E+01     0.64811E-01
     0.27000E-05     0.15619E+01     0.66071E-01
     0.30000E-05     0.15627E+01     0.68591E-01
     0.32000E-05     0.15643E+01     0.68591E-01
     0.33920E-05     0.15652E+01     0.69930E-01
     0.35000E-05     0.15660E+01     0.71190E-01
     0.37500E-05     0.15671E+01     0.72450E-01
     0.40000E-05     0.15694E+01     0.73710E-01
     0.45000E-05     0.15670E+01     0.60480E-01
     0.50000E-05     0.15646E+01     0.47250E-01
     0.55000E-05     0.15662E+01     0.48037E-01
     0.60000E-05     0.15686E+01     0.48825E-01
     0.62000E-05     0.15694E+01     0.49219E-01
     0.65000E-05     0.15702E+01     0.49612E-01
     0.72000E-05     0.15717E+01     0.51187E-01
     0.79000E-05     0.15765E+01     0.52763E-01
     0.82000E-05     0.15772E+01     0.53550E-01
     0.85000E-05     0.15788E+01     0.54337E-01
     0.87000E-05     0.15796E+01     0.54337E-01
     0.90000E-05     0.15804E+01     0.55125E-01
     0.92000E-05     0.15812E+01     0.55125E-01
     0.95000E-05     0.15820E+01     0.55912E-01
     0.98000E-05     0.15828E+01     0.56306E-01
     0.10000E-04     0.15835E+01     0.56700E-01
     0.10591E-04     0.15843E+01     0.57488E-01
     0.11000E-04     0.15851E+01     0.57488E-01
     0.11500E-04     0.15859E+01     0.58275E-01
     0.12500E-04     0.15883E+01     0.59062E-01
     0.13000E-04     0.15891E+01     0.59850E-01
     0.14000E-04     0.15914E+01     0.61031E-01
     0.14800E-04     0.15930E+01     0.62213E-01
     0.15000E-04     0.15930E+01     0.62213E-01
     0.16400E-04     0.15954E+01     0.63787E-01
     0.17200E-04     0.15969E+01     0.64575E-01
     0.18000E-04     0.15985E+01     0.64969E-01
     0.18500E-04     0.15993E+01     0.65362E-01
     0.20000E-04     0.16024E+01     0.66937E-01
     0.21300E-04     0.16032E+01     0.67725E-01
     0.22500E-04     0.16048E+01     0.68512E-01
     0.25000E-04     0.16072E+01     0.70087E-01
     0.27900E-04     0.16095E+01     0.71663E-01
     0.30000E-04     0.16119E+01     0.73238E-01
     0.35000E-04     0.16166E+01     0.76388E-01
     0.40000E-04     0.16213E+01     0.78750E-01
     0.10000E+00     0.14883E+01     0.00000E+00
*END
 
