Refractive Index of Dust Particles as given in SRA
     Wavelength (m)  Real Part       Imaginary Part
*BEGIN_DATA
     2.00000e-07     1.53000e+00     7.00000e-02
     2.50000e-07     1.53000e+00     3.00000e-02
     3.00000e-07     1.53000e+00     8.00000e-03
     3.37000e-07     1.53000e+00     8.00000e-03
     4.00000e-07     1.53000e+00     8.00000e-03
     4.88000e-07     1.53000e+00     8.00000e-03
     5.15000e-07     1.53000e+00     8.00000e-03
     5.50000e-07     1.53000e+00     8.00000e-03
     6.33000e-07     1.53000e+00     8.00000e-03
     6.94000e-07     1.53000e+00     8.00000e-03
     8.60000e-07     1.52000e+00     8.00000e-03
     1.06000e-06     1.52000e+00     8.00000e-03
     1.30000e-06     1.46000e+00     8.00000e-03
     1.53600e-06     1.40000e+00     8.00000e-03
     1.80000e-06     1.33000e+00     8.00000e-03
     2.00000e-06     1.26000e+00     8.00000e-03
     2.25000e-06     1.22000e+00     9.00000e-03
     2.50000e-06     1.18000e+00     9.00000e-03
     2.70000e-06     1.18000e+00     1.30000e-02
     3.00000e-06     1.16000e+00     1.20000e-02
     3.20000e-06     1.22000e+00     1.00000e-02
     3.39200e-06     1.26000e+00     1.30000e-02
     3.50000e-06     1.28000e+00     1.10000e-02
     3.75000e-06     1.27000e+00     1.10000e-02
     4.00000e-06     1.26000e+00     1.20000e-02
     4.50000e-06     1.26000e+00     1.40000e-02
     5.00000e-06     1.25000e+00     1.60000e-02
     5.50000e-06     1.22000e+00     2.10000e-02
     6.00000e-06     1.15000e+00     3.70000e-02
     6.20000e-06     1.14000e+00     3.90000e-02
     6.50000e-06     1.13000e+00     4.20000e-02
     7.20000e-06     1.40000e+00     5.50000e-02
     7.90000e-06     1.15000e+00     4.00000e-02
     8.20000e-06     1.13000e+00     7.40000e-02
     8.50000e-06     1.30000e+00     9.00000e-02
     8.70000e-06     1.40000e+00     1.00000e-01
     9.00000e-06     1.70000e+00     1.40000e-01
     9.20000e-06     1.72000e+00     1.50000e-01
     9.50000e-06     1.73000e+00     1.62000e-01
     9.80000e-06     1.74000e+00     1.62000e-01
     1.00000e-05     1.75000e+00     1.62000e-01
     1.05910e-05     1.62000e+00     1.20000e-01
     1.10000e-05     1.62000e+00     1.05000e-01
     1.15000e-05     1.59000e+00     1.00000e-01
     1.25000e-05     1.51000e+00     9.00000e-02
     1.30000e-05     1.47000e+00     1.00000e-01
     1.40000e-05     1.52000e+00     8.50000e-02
     1.48000e-05     1.57000e+00     1.00000e-01
     1.50000e-05     1.57000e+00     1.00000e-01
     1.64000e-05     1.60000e+00     1.00000e-01
     1.72000e-05     1.63000e+00     1.00000e-01
     1.80000e-05     1.64000e+00     1.15000e-01
     1.85000e-05     1.64000e+00     1.20000e-01
     2.00000e-05     1.68000e+00     2.20000e-01
     2.13000e-05     1.77000e+00     2.80000e-01
     2.25000e-05     1.90000e+00     2.80000e-01
     2.50000e-05     1.97000e+00     2.40000e-01
     2.79000e-05     1.89000e+00     3.20000e-01
     3.00000e-05     1.80000e+00     4.20000e-01
     3.50000e-05     1.90000e+00     5.00000e-01
     4.00000e-05     2.10000e+00     6.00000e-01
     1.00000e-01     1.00000e+00     0.00000e+00
*END
