Refractive Index based of fresh BB - mix of BC and OC
     Wavelength (m)  Real Part       Imaginary Part
*BEGIN_DATA
     0.20000E-06     0.15327E+01     0.27459E-01
     0.25000E-06     0.15389E+01     0.35284E-01
     0.30000E-06     0.15450E+01     0.36839E-01
     0.33700E-06     0.15456E+01     0.36839E-01
     0.40000E-06     0.15456E+01     0.36061E-01
     0.48800E-06     0.15456E+01     0.35284E-01
     0.51500E-06     0.15456E+01     0.35284E-01
     0.55000E-06     0.15456E+01     0.34506E-01
     0.63300E-06     0.15456E+01     0.33728E-01
     0.69400E-06     0.15456E+01     0.33728E-01
     0.86000E-06     0.15456E+01     0.33728E-01
     0.10600E-05     0.15456E+01     0.34506E-01
     0.13000E-05     0.15461E+01     0.35284E-01
     0.15360E-05     0.15466E+01     0.36061E-01
     0.18000E-05     0.15476E+01     0.37665E-01
     0.20000E-05     0.15481E+01     0.38443E-01
     0.22500E-05     0.15486E+01     0.39220E-01
     0.25000E-05     0.15491E+01     0.39998E-01
     0.27000E-05     0.15497E+01     0.40775E-01
     0.30000E-05     0.15502E+01     0.42331E-01
     0.32000E-05     0.15512E+01     0.42331E-01
     0.33920E-05     0.15517E+01     0.43157E-01
     0.35000E-05     0.15522E+01     0.43934E-01
     0.37500E-05     0.15529E+01     0.44712E-01
     0.40000E-05     0.15543E+01     0.45490E-01
     0.45000E-05     0.15528E+01     0.37325E-01
     0.50000E-05     0.15514E+01     0.29160E-01
     0.55000E-05     0.15524E+01     0.29646E-01
     0.60000E-05     0.15538E+01     0.30132E-01
     0.62000E-05     0.15543E+01     0.30375E-01
     0.65000E-05     0.15548E+01     0.30618E-01
     0.72000E-05     0.15558E+01     0.31590E-01
     0.79000E-05     0.15587E+01     0.32562E-01
     0.82000E-05     0.15592E+01     0.33048E-01
     0.85000E-05     0.15601E+01     0.33534E-01
     0.87000E-05     0.15606E+01     0.33534E-01
     0.90000E-05     0.15611E+01     0.34020E-01
     0.92000E-05     0.15616E+01     0.34020E-01
     0.95000E-05     0.15621E+01     0.34506E-01
     0.98000E-05     0.15626E+01     0.34749E-01
     0.10000E-04     0.15630E+01     0.34992E-01
     0.10591E-04     0.15635E+01     0.35478E-01
     0.11000E-04     0.15640E+01     0.35478E-01
     0.11500E-04     0.15645E+01     0.35964E-01
     0.12500E-04     0.15660E+01     0.36450E-01
     0.13000E-04     0.15664E+01     0.36936E-01
     0.14000E-04     0.15679E+01     0.37665E-01
     0.14800E-04     0.15689E+01     0.38394E-01
     0.15000E-04     0.15689E+01     0.38394E-01
     0.16400E-04     0.15703E+01     0.39366E-01
     0.17200E-04     0.15713E+01     0.39852E-01
     0.18000E-04     0.15723E+01     0.40095E-01
     0.18500E-04     0.15728E+01     0.40338E-01
     0.20000E-04     0.15747E+01     0.41310E-01
     0.21300E-04     0.15752E+01     0.41796E-01
     0.22500E-04     0.15762E+01     0.42282E-01
     0.25000E-04     0.15776E+01     0.43254E-01
     0.27900E-04     0.15791E+01     0.44226E-01
     0.30000E-04     0.15805E+01     0.45198E-01
     0.35000E-04     0.15835E+01     0.47142E-01
     0.40000E-04     0.15864E+01     0.48600E-01
     0.10000E+00     0.15042E+01     0.00000E+00
*END
 
